/*--------------------------------*- C++ -*----------------------------------*\
| =========                 |                                                 |
| \\      /  F ield         | OpenFOAM: The Open Source CFD Toolbox           |
|  \\    /   O peration     | Version:  4.0                                   |
|   \\  /    A nd           | Web:      www.OpenFOAM.org                      |
|    \\/     M anipulation  |                                                 |
\*---------------------------------------------------------------------------*/
FoamFile
{
    version     2.0;
    format      ascii;
    class       volScalarField;
    location    "120/electrolyte";
    object      concMe;
}
// * * * * * * * * * * * * * * * * * * * * * * * * * * * * * * * * * * * * * //

dimensions      [0 -3 0 0 1 0 0];

internalField   nonuniform List<scalar> 
4840
(
28.73688
28.73688
28.73688
28.73688
28.73688
28.76976
28.76976
28.76976
28.76976
28.76976
28.79274
28.79274
28.79274
28.79274
28.79274
28.79604
28.79604
28.79604
28.79604
28.79604
28.79589
28.79589
28.79589
28.79589
28.79589
28.79321
28.79321
28.79321
28.79321
28.79321
28.77415
28.77415
28.77415
28.77415
28.77415
28.77524
28.77524
28.77524
28.77524
28.77524
28.79343
28.79343
28.79343
28.79343
28.79343
28.7961
28.7961
28.7961
28.7961
28.7961
28.79614
28.79614
28.79614
28.79614
28.79614
28.79348
28.79348
28.79348
28.79348
28.79348
28.77507
28.77507
28.77507
28.77507
28.77507
28.77523
28.77523
28.77523
28.77523
28.77523
28.79352
28.79352
28.79352
28.79352
28.79352
28.7962
28.7962
28.7962
28.7962
28.7962
28.7962
28.7962
28.7962
28.7962
28.7962
28.79355
28.79355
28.79355
28.79355
28.79355
28.77523
28.77523
28.77523
28.77523
28.77523
28.77529
28.77529
28.77529
28.77529
28.77529
28.79356
28.79356
28.79356
28.79356
28.79356
28.79622
28.79622
28.79622
28.79622
28.79622
28.79622
28.79622
28.79622
28.79622
28.79622
28.79356
28.79356
28.79356
28.79356
28.79356
28.77529
28.77529
28.77529
28.77529
28.77529
28.7752
28.7752
28.7752
28.7752
28.7752
28.79353
28.79353
28.79353
28.79353
28.79353
28.79618
28.79618
28.79618
28.79618
28.79618
28.79618
28.79618
28.79618
28.79618
28.79618
28.79352
28.79352
28.79352
28.79352
28.79352
28.77517
28.77517
28.77517
28.77517
28.77517
28.77499
28.77499
28.77499
28.77499
28.77499
28.79343
28.79343
28.79343
28.79343
28.79343
28.7961
28.7961
28.7961
28.7961
28.7961
28.79612
28.79612
28.79612
28.79612
28.79612
28.79346
28.79346
28.79346
28.79346
28.79346
28.77529
28.77529
28.77529
28.77529
28.77529
28.77419
28.77419
28.77419
28.77419
28.77419
28.79324
28.79324
28.79324
28.79324
28.79324
28.79596
28.79596
28.79596
28.79596
28.79596
28.79617
28.79617
28.79617
28.79617
28.79617
28.79288
28.79288
28.79288
28.79288
28.79288
28.77003
28.77003
28.77003
28.77003
28.77003
28.73734
28.73734
28.73734
28.73734
28.73734
28.74683
28.74683
28.74683
28.74683
28.74683
28.76917
28.76917
28.76917
28.76917
28.76917
28.78721
28.78721
28.78721
28.78721
28.78721
28.7902
28.7902
28.7902
28.7902
28.7902
28.78997
28.78997
28.78997
28.78997
28.78997
28.78702
28.78702
28.78702
28.78702
28.78702
28.7695
28.7695
28.7695
28.7695
28.7695
28.77086
28.77086
28.77086
28.77086
28.77086
28.78737
28.78737
28.78737
28.78737
28.78737
28.79015
28.79015
28.79015
28.79015
28.79015
28.79014
28.79014
28.79014
28.79014
28.79014
28.78728
28.78728
28.78728
28.78728
28.78728
28.77031
28.77031
28.77031
28.77031
28.77031
28.77058
28.77058
28.77058
28.77058
28.77058
28.78735
28.78735
28.78735
28.78735
28.78735
28.79018
28.79018
28.79018
28.79018
28.79018
28.79013
28.79013
28.79013
28.79013
28.79013
28.7873
28.7873
28.7873
28.7873
28.7873
28.7704
28.7704
28.7704
28.7704
28.7704
28.77049
28.77049
28.77049
28.77049
28.77049
28.78733
28.78733
28.78733
28.78733
28.78733
28.79015
28.79015
28.79015
28.79015
28.79015
28.79015
28.79015
28.79015
28.79015
28.79015
28.78733
28.78733
28.78733
28.78733
28.78733
28.77049
28.77049
28.77049
28.77049
28.77049
28.77039
28.77039
28.77039
28.77039
28.77039
28.78734
28.78734
28.78734
28.78734
28.78734
28.79017
28.79017
28.79017
28.79017
28.79017
28.79017
28.79017
28.79017
28.79017
28.79017
28.78735
28.78735
28.78735
28.78735
28.78735
28.77056
28.77056
28.77056
28.77056
28.77056
28.7703
28.7703
28.7703
28.7703
28.7703
28.78728
28.78728
28.78728
28.78728
28.78728
28.79013
28.79013
28.79013
28.79013
28.79013
28.79016
28.79016
28.79016
28.79016
28.79016
28.78738
28.78738
28.78738
28.78738
28.78738
28.77088
28.77088
28.77088
28.77088
28.77088
28.76952
28.76952
28.76952
28.76952
28.76952
28.78703
28.78703
28.78703
28.78703
28.78703
28.79
28.79
28.79
28.79
28.79
28.79024
28.79024
28.79024
28.79024
28.79024
28.78725
28.78725
28.78725
28.78725
28.78725
28.76925
28.76925
28.76925
28.76925
28.76925
28.74698
28.74698
28.74698
28.74698
28.74698
28.74026
28.74026
28.74026
28.74026
28.74026
28.76178
28.76178
28.76178
28.76178
28.76178
28.78155
28.78155
28.78155
28.78155
28.78155
28.78506
28.78506
28.78506
28.78506
28.78506
28.78474
28.78474
28.78474
28.78474
28.78474
28.78112
28.78112
28.78112
28.78112
28.78112
28.76297
28.76297
28.76297
28.76297
28.76297
28.76429
28.76429
28.76429
28.76429
28.76429
28.78159
28.78159
28.78159
28.78159
28.78159
28.78495
28.78495
28.78495
28.78495
28.78495
28.78492
28.78492
28.78492
28.78492
28.78492
28.78144
28.78144
28.78144
28.78144
28.78144
28.76373
28.76373
28.76373
28.76373
28.76373
28.76413
28.76413
28.76413
28.76413
28.76413
28.78161
28.78161
28.78161
28.78161
28.78161
28.78502
28.78502
28.78502
28.78502
28.78502
28.785
28.785
28.785
28.785
28.785
28.78157
28.78157
28.78157
28.78157
28.78157
28.76392
28.76392
28.76392
28.76392
28.76392
28.76406
28.76406
28.76406
28.76406
28.76406
28.78161
28.78161
28.78161
28.78161
28.78161
28.78504
28.78504
28.78504
28.78504
28.78504
28.78504
28.78504
28.78504
28.78504
28.78504
28.78162
28.78162
28.78162
28.78162
28.78162
28.76406
28.76406
28.76406
28.76406
28.76406
28.76392
28.76392
28.76392
28.76392
28.76392
28.78158
28.78158
28.78158
28.78158
28.78158
28.78501
28.78501
28.78501
28.78501
28.78501
28.78502
28.78502
28.78502
28.78502
28.78502
28.78161
28.78161
28.78161
28.78161
28.78161
28.76412
28.76412
28.76412
28.76412
28.76412
28.76371
28.76371
28.76371
28.76371
28.76371
28.78143
28.78143
28.78143
28.78143
28.78143
28.78491
28.78491
28.78491
28.78491
28.78491
28.78495
28.78495
28.78495
28.78495
28.78495
28.7816
28.7816
28.7816
28.7816
28.7816
28.76431
28.76431
28.76431
28.76431
28.76431
28.76298
28.76298
28.76298
28.76298
28.76298
28.78113
28.78113
28.78113
28.78113
28.78113
28.78476
28.78476
28.78476
28.78476
28.78476
28.78509
28.78509
28.78509
28.78509
28.78509
28.78159
28.78159
28.78159
28.78159
28.78159
28.76186
28.76186
28.76186
28.76186
28.76186
28.74038
28.74038
28.74038
28.74038
28.74038
28.73055
28.73055
28.73055
28.73055
28.73055
28.75145
28.75145
28.75145
28.75145
28.75145
28.77564
28.77564
28.77564
28.77564
28.77564
28.7804
28.7804
28.7804
28.7804
28.7804
28.7801
28.7801
28.7801
28.7801
28.7801
28.77526
28.77526
28.77526
28.77526
28.77526
28.75597
28.75597
28.75597
28.75597
28.75597
28.75695
28.75695
28.75695
28.75695
28.75695
28.77601
28.77601
28.77601
28.77601
28.77601
28.78036
28.78036
28.78036
28.78036
28.78036
28.78028
28.78028
28.78028
28.78028
28.78028
28.77564
28.77564
28.77564
28.77564
28.77564
28.75657
28.75657
28.75657
28.75657
28.75657
28.75687
28.75687
28.75687
28.75687
28.75687
28.77593
28.77593
28.77593
28.77593
28.77593
28.78037
28.78037
28.78037
28.78037
28.78037
28.78034
28.78034
28.78034
28.78034
28.78034
28.77576
28.77576
28.77576
28.77576
28.77576
28.75664
28.75664
28.75664
28.75664
28.75664
28.75675
28.75675
28.75675
28.75675
28.75675
28.77583
28.77583
28.77583
28.77583
28.77583
28.78033
28.78033
28.78033
28.78033
28.78033
28.78033
28.78033
28.78033
28.78033
28.78033
28.77583
28.77583
28.77583
28.77583
28.77583
28.75675
28.75675
28.75675
28.75675
28.75675
28.75664
28.75664
28.75664
28.75664
28.75664
28.77572
28.77572
28.77572
28.77572
28.77572
28.7803
28.7803
28.7803
28.7803
28.7803
28.78037
28.78037
28.78037
28.78037
28.78037
28.77593
28.77593
28.77593
28.77593
28.77593
28.75686
28.75686
28.75686
28.75686
28.75686
28.75653
28.75653
28.75653
28.75653
28.75653
28.77561
28.77561
28.77561
28.77561
28.77561
28.78027
28.78027
28.78027
28.78027
28.78027
28.78036
28.78036
28.78036
28.78036
28.78036
28.77602
28.77602
28.77602
28.77602
28.77602
28.75697
28.75697
28.75697
28.75697
28.75697
28.75598
28.75598
28.75598
28.75598
28.75598
28.77526
28.77526
28.77526
28.77526
28.77526
28.78011
28.78011
28.78011
28.78011
28.78011
28.78043
28.78043
28.78043
28.78043
28.78043
28.7757
28.7757
28.7757
28.7757
28.7757
28.75155
28.75155
28.75155
28.75155
28.75155
28.73065
28.73065
28.73065
28.73065
28.73065
28.72065
28.72065
28.72065
28.72065
28.72065
28.74154
28.74154
28.74154
28.74154
28.74154
28.77011
28.77011
28.77011
28.77011
28.77011
28.77631
28.77631
28.77631
28.77631
28.77631
28.77605
28.77605
28.77605
28.77605
28.77605
28.77027
28.77027
28.77027
28.77027
28.77027
28.74903
28.74903
28.74903
28.74903
28.74903
28.74976
28.74976
28.74976
28.74976
28.74976
28.77106
28.77106
28.77106
28.77106
28.77106
28.77633
28.77633
28.77633
28.77633
28.77633
28.77621
28.77621
28.77621
28.77621
28.77621
28.77059
28.77059
28.77059
28.77059
28.77059
28.74951
28.74951
28.74951
28.74951
28.74951
28.74977
28.74977
28.74977
28.74977
28.74977
28.77106
28.77106
28.77106
28.77106
28.77106
28.7764
28.7764
28.7764
28.7764
28.7764
28.77634
28.77634
28.77634
28.77634
28.77634
28.77081
28.77081
28.77081
28.77081
28.77081
28.74968
28.74968
28.74968
28.74968
28.74968
28.74979
28.74979
28.74979
28.74979
28.74979
28.771
28.771
28.771
28.771
28.771
28.7764
28.7764
28.7764
28.7764
28.7764
28.7764
28.7764
28.7764
28.7764
28.7764
28.771
28.771
28.771
28.771
28.771
28.7498
28.7498
28.7498
28.7498
28.7498
28.7497
28.7497
28.7497
28.7497
28.7497
28.77081
28.77081
28.77081
28.77081
28.77081
28.77635
28.77635
28.77635
28.77635
28.77635
28.77642
28.77642
28.77642
28.77642
28.77642
28.77107
28.77107
28.77107
28.77107
28.77107
28.74982
28.74982
28.74982
28.74982
28.74982
28.74955
28.74955
28.74955
28.74955
28.74955
28.77062
28.77062
28.77062
28.77062
28.77062
28.77624
28.77624
28.77624
28.77624
28.77624
28.77631
28.77631
28.77631
28.77631
28.77631
28.77104
28.77104
28.77104
28.77104
28.77104
28.74974
28.74974
28.74974
28.74974
28.74974
28.749
28.749
28.749
28.749
28.749
28.77025
28.77025
28.77025
28.77025
28.77025
28.776
28.776
28.776
28.776
28.776
28.77623
28.77623
28.77623
28.77623
28.77623
28.77004
28.77004
28.77004
28.77004
28.77004
28.74148
28.74148
28.74148
28.74148
28.74148
28.72059
28.72059
28.72059
28.72059
28.72059
28.71059
28.71059
28.71059
28.71059
28.71059
28.73158
28.73158
28.73158
28.73158
28.73158
28.76412
28.76412
28.76412
28.76412
28.76412
28.77245
28.77245
28.77245
28.77245
28.77245
28.77242
28.77242
28.77242
28.77242
28.77242
28.7656
28.7656
28.7656
28.7656
28.7656
28.7425
28.7425
28.7425
28.7425
28.7425
28.74304
28.74304
28.74304
28.74304
28.74304
28.76627
28.76627
28.76627
28.76627
28.76627
28.77274
28.77274
28.77274
28.77274
28.77274
28.77264
28.77264
28.77264
28.77264
28.77264
28.76582
28.76582
28.76582
28.76582
28.76582
28.74294
28.74294
28.74294
28.74294
28.74294
28.74319
28.74319
28.74319
28.74319
28.74319
28.76645
28.76645
28.76645
28.76645
28.76645
28.77288
28.77288
28.77288
28.77288
28.77288
28.77279
28.77279
28.77279
28.77279
28.77279
28.76612
28.76612
28.76612
28.76612
28.76612
28.74311
28.74311
28.74311
28.74311
28.74311
28.74319
28.74319
28.74319
28.74319
28.74319
28.7663
28.7663
28.7663
28.7663
28.7663
28.77285
28.77285
28.77285
28.77285
28.77285
28.77285
28.77285
28.77285
28.77285
28.77285
28.7663
28.7663
28.7663
28.7663
28.7663
28.74319
28.74319
28.74319
28.74319
28.74319
28.74309
28.74309
28.74309
28.74309
28.74309
28.7661
28.7661
28.7661
28.7661
28.7661
28.77278
28.77278
28.77278
28.77278
28.77278
28.77287
28.77287
28.77287
28.77287
28.77287
28.76645
28.76645
28.76645
28.76645
28.76645
28.74316
28.74316
28.74316
28.74316
28.74316
28.74291
28.74291
28.74291
28.74291
28.74291
28.76579
28.76579
28.76579
28.76579
28.76579
28.77262
28.77262
28.77262
28.77262
28.77262
28.77276
28.77276
28.77276
28.77276
28.77276
28.76629
28.76629
28.76629
28.76629
28.76629
28.74307
28.74307
28.74307
28.74307
28.74307
28.74252
28.74252
28.74252
28.74252
28.74252
28.76562
28.76562
28.76562
28.76562
28.76562
28.77247
28.77247
28.77247
28.77247
28.77247
28.77253
28.77253
28.77253
28.77253
28.77253
28.76422
28.76422
28.76422
28.76422
28.76422
28.73173
28.73173
28.73173
28.73173
28.73173
28.71076
28.71076
28.71076
28.71076
28.71076
28.70063
28.70063
28.70063
28.70063
28.70063
28.72241
28.72241
28.72241
28.72241
28.72241
28.75908
28.75908
28.75908
28.75908
28.75908
28.76919
28.76919
28.76919
28.76919
28.76919
28.76936
28.76936
28.76936
28.76936
28.76936
28.76157
28.76157
28.76157
28.76157
28.76157
28.73643
28.73643
28.73643
28.73643
28.73643
28.73686
28.73686
28.73686
28.73686
28.73686
28.76237
28.76237
28.76237
28.76237
28.76237
28.76971
28.76971
28.76971
28.76971
28.76971
28.76954
28.76954
28.76954
28.76954
28.76954
28.76178
28.76178
28.76178
28.76178
28.76178
28.73673
28.73673
28.73673
28.73673
28.73673
28.73697
28.73697
28.73697
28.73697
28.73697
28.76249
28.76249
28.76249
28.76249
28.76249
28.76979
28.76979
28.76979
28.76979
28.76979
28.76965
28.76965
28.76965
28.76965
28.76965
28.76208
28.76208
28.76208
28.76208
28.76208
28.73684
28.73684
28.73684
28.73684
28.73684
28.7369
28.7369
28.7369
28.7369
28.7369
28.7622
28.7622
28.7622
28.7622
28.7622
28.7697
28.7697
28.7697
28.7697
28.7697
28.7697
28.7697
28.7697
28.7697
28.7697
28.76221
28.76221
28.76221
28.76221
28.76221
28.7369
28.7369
28.7369
28.7369
28.7369
28.73683
28.73683
28.73683
28.73683
28.73683
28.76211
28.76211
28.76211
28.76211
28.76211
28.76968
28.76968
28.76968
28.76968
28.76968
28.76979
28.76979
28.76979
28.76979
28.76979
28.76249
28.76249
28.76249
28.76249
28.76249
28.73697
28.73697
28.73697
28.73697
28.73697
28.73673
28.73673
28.73673
28.73673
28.73673
28.76178
28.76178
28.76178
28.76178
28.76178
28.76954
28.76954
28.76954
28.76954
28.76954
28.76972
28.76972
28.76972
28.76972
28.76972
28.76239
28.76239
28.76239
28.76239
28.76239
28.73687
28.73687
28.73687
28.73687
28.73687
28.73643
28.73643
28.73643
28.73643
28.73643
28.76158
28.76158
28.76158
28.76158
28.76158
28.76937
28.76937
28.76937
28.76937
28.76937
28.76923
28.76923
28.76923
28.76923
28.76923
28.75912
28.75912
28.75912
28.75912
28.75912
28.72248
28.72248
28.72248
28.72248
28.72248
28.70073
28.70073
28.70073
28.70073
28.70073
28.69068
28.69068
28.69068
28.69068
28.69068
28.71372
28.71372
28.71372
28.71372
28.71372
28.75444
28.75444
28.75444
28.75444
28.75444
28.76616
28.76616
28.76616
28.76616
28.76616
28.76651
28.76651
28.76651
28.76651
28.76651
28.75788
28.75788
28.75788
28.75788
28.75788
28.73067
28.73067
28.73067
28.73067
28.73067
28.73107
28.73107
28.73107
28.73107
28.73107
28.75891
28.75891
28.75891
28.75891
28.75891
28.76696
28.76696
28.76696
28.76696
28.76696
28.76676
28.76676
28.76676
28.76676
28.76676
28.75821
28.75821
28.75821
28.75821
28.75821
28.731
28.731
28.731
28.731
28.731
28.73124
28.73124
28.73124
28.73124
28.73124
28.75896
28.75896
28.75896
28.75896
28.75896
28.76706
28.76706
28.76706
28.76706
28.76706
28.76695
28.76695
28.76695
28.76695
28.76695
28.75863
28.75863
28.75863
28.75863
28.75863
28.73116
28.73116
28.73116
28.73116
28.73116
28.73119
28.73119
28.73119
28.73119
28.73119
28.75866
28.75866
28.75866
28.75866
28.75866
28.76698
28.76698
28.76698
28.76698
28.76698
28.76698
28.76698
28.76698
28.76698
28.76698
28.75866
28.75866
28.75866
28.75866
28.75866
28.7312
28.7312
28.7312
28.7312
28.7312
28.73115
28.73115
28.73115
28.73115
28.73115
28.75863
28.75863
28.75863
28.75863
28.75863
28.76695
28.76695
28.76695
28.76695
28.76695
28.76706
28.76706
28.76706
28.76706
28.76706
28.75896
28.75896
28.75896
28.75896
28.75896
28.73124
28.73124
28.73124
28.73124
28.73124
28.73099
28.73099
28.73099
28.73099
28.73099
28.75821
28.75821
28.75821
28.75821
28.75821
28.76675
28.76675
28.76675
28.76675
28.76675
28.76697
28.76697
28.76697
28.76697
28.76697
28.75892
28.75892
28.75892
28.75892
28.75892
28.73108
28.73108
28.73108
28.73108
28.73108
28.73068
28.73068
28.73068
28.73068
28.73068
28.75788
28.75788
28.75788
28.75788
28.75788
28.76652
28.76652
28.76652
28.76652
28.76652
28.76619
28.76619
28.76619
28.76619
28.76619
28.75449
28.75449
28.75449
28.75449
28.75449
28.7138
28.7138
28.7138
28.7138
28.7138
28.69077
28.69077
28.69077
28.69077
28.69077
28.68098
28.68098
28.68098
28.68098
28.68098
28.70572
28.70572
28.70572
28.70572
28.70572
28.7505
28.7505
28.7505
28.7505
28.7505
28.76353
28.76353
28.76353
28.76353
28.76353
28.76404
28.76404
28.76404
28.76404
28.76404
28.75472
28.75472
28.75472
28.75472
28.75472
28.72551
28.72551
28.72551
28.72551
28.72551
28.7259
28.7259
28.7259
28.7259
28.7259
28.75588
28.75588
28.75588
28.75588
28.75588
28.76457
28.76457
28.76457
28.76457
28.76457
28.76434
28.76434
28.76434
28.76434
28.76434
28.75506
28.75506
28.75506
28.75506
28.75506
28.72579
28.72579
28.72579
28.72579
28.72579
28.72602
28.72602
28.72602
28.72602
28.72602
28.75589
28.75589
28.75589
28.75589
28.75589
28.76464
28.76464
28.76464
28.76464
28.76464
28.76452
28.76452
28.76452
28.76452
28.76452
28.75553
28.75553
28.75553
28.75553
28.75553
28.72589
28.72589
28.72589
28.72589
28.72589
28.72589
28.72589
28.72589
28.72589
28.72589
28.75545
28.75545
28.75545
28.75545
28.75545
28.76448
28.76448
28.76448
28.76448
28.76448
28.76448
28.76448
28.76448
28.76448
28.76448
28.75545
28.75545
28.75545
28.75545
28.75545
28.7259
28.7259
28.7259
28.7259
28.7259
28.72588
28.72588
28.72588
28.72588
28.72588
28.7555
28.7555
28.7555
28.7555
28.7555
28.76449
28.76449
28.76449
28.76449
28.76449
28.76464
28.76464
28.76464
28.76464
28.76464
28.7559
28.7559
28.7559
28.7559
28.7559
28.72602
28.72602
28.72602
28.72602
28.72602
28.72576
28.72576
28.72576
28.72576
28.72576
28.75504
28.75504
28.75504
28.75504
28.75504
28.76434
28.76434
28.76434
28.76434
28.76434
28.76458
28.76458
28.76458
28.76458
28.76458
28.75589
28.75589
28.75589
28.75589
28.75589
28.72592
28.72592
28.72592
28.72592
28.72592
28.72551
28.72551
28.72551
28.72551
28.72551
28.75472
28.75472
28.75472
28.75472
28.75472
28.76405
28.76405
28.76405
28.76405
28.76405
28.76356
28.76356
28.76356
28.76356
28.76356
28.75056
28.75056
28.75056
28.75056
28.75056
28.70582
28.70582
28.70582
28.70582
28.70582
28.68107
28.68107
28.68107
28.68107
28.68107
28.67171
28.67171
28.67171
28.67171
28.67171
28.69831
28.69831
28.69831
28.69831
28.69831
28.74689
28.74689
28.74689
28.74689
28.74689
28.7611
28.7611
28.7611
28.7611
28.7611
28.76173
28.76173
28.76173
28.76173
28.76173
28.75182
28.75182
28.75182
28.75182
28.75182
28.72074
28.72074
28.72074
28.72074
28.72074
28.72112
28.72112
28.72112
28.72112
28.72112
28.75295
28.75295
28.75295
28.75295
28.75295
28.7623
28.7623
28.7623
28.7623
28.7623
28.76206
28.76206
28.76206
28.76206
28.76206
28.75213
28.75213
28.75213
28.75213
28.75213
28.72101
28.72101
28.72101
28.72101
28.72101
28.72126
28.72126
28.72126
28.72126
28.72126
28.75305
28.75305
28.75305
28.75305
28.75305
28.76242
28.76242
28.76242
28.76242
28.76242
28.76231
28.76231
28.76231
28.76231
28.76231
28.75265
28.75265
28.75265
28.75265
28.75265
28.7212
28.7212
28.7212
28.7212
28.7212
28.72123
28.72123
28.72123
28.72123
28.72123
28.75269
28.75269
28.75269
28.75269
28.75269
28.7623
28.7623
28.7623
28.7623
28.7623
28.76231
28.76231
28.76231
28.76231
28.76231
28.75269
28.75269
28.75269
28.75269
28.75269
28.72123
28.72123
28.72123
28.72123
28.72123
28.72121
28.72121
28.72121
28.72121
28.72121
28.75265
28.75265
28.75265
28.75265
28.75265
28.76231
28.76231
28.76231
28.76231
28.76231
28.76244
28.76244
28.76244
28.76244
28.76244
28.75305
28.75305
28.75305
28.75305
28.75305
28.72131
28.72131
28.72131
28.72131
28.72131
28.72104
28.72104
28.72104
28.72104
28.72104
28.75216
28.75216
28.75216
28.75216
28.75216
28.76209
28.76209
28.76209
28.76209
28.76209
28.76229
28.76229
28.76229
28.76229
28.76229
28.75295
28.75295
28.75295
28.75295
28.75295
28.72111
28.72111
28.72111
28.72111
28.72111
28.72071
28.72071
28.72071
28.72071
28.72071
28.75179
28.75179
28.75179
28.75179
28.75179
28.76168
28.76168
28.76168
28.76168
28.76168
28.76103
28.76103
28.76103
28.76103
28.76103
28.74685
28.74685
28.74685
28.74685
28.74685
28.69827
28.69827
28.69827
28.69827
28.69827
28.67166
28.67166
28.67166
28.67166
28.67166
28.66279
28.66279
28.66279
28.66279
28.66279
28.69131
28.69131
28.69131
28.69131
28.69131
28.74347
28.74347
28.74347
28.74347
28.74347
28.75875
28.75875
28.75875
28.75875
28.75875
28.75957
28.75957
28.75957
28.75957
28.75957
28.74919
28.74919
28.74919
28.74919
28.74919
28.71642
28.71642
28.71642
28.71642
28.71642
28.71678
28.71678
28.71678
28.71678
28.71678
28.75021
28.75021
28.75021
28.75021
28.75021
28.76019
28.76019
28.76019
28.76019
28.76019
28.76002
28.76002
28.76002
28.76002
28.76002
28.74955
28.74955
28.74955
28.74955
28.74955
28.71676
28.71676
28.71676
28.71676
28.71676
28.717
28.717
28.717
28.717
28.717
28.7503
28.7503
28.7503
28.7503
28.7503
28.76034
28.76034
28.76034
28.76034
28.76034
28.76023
28.76023
28.76023
28.76023
28.76023
28.74988
28.74988
28.74988
28.74988
28.74988
28.71694
28.71694
28.71694
28.71694
28.71694
28.71702
28.71702
28.71702
28.71702
28.71702
28.75014
28.75014
28.75014
28.75014
28.75014
28.76027
28.76027
28.76027
28.76027
28.76027
28.76027
28.76027
28.76027
28.76027
28.76027
28.75015
28.75015
28.75015
28.75015
28.75015
28.71703
28.71703
28.71703
28.71703
28.71703
28.71692
28.71692
28.71692
28.71692
28.71692
28.74986
28.74986
28.74986
28.74986
28.74986
28.76021
28.76021
28.76021
28.76021
28.76021
28.76034
28.76034
28.76034
28.76034
28.76034
28.75031
28.75031
28.75031
28.75031
28.75031
28.71698
28.71698
28.71698
28.71698
28.71698
28.71673
28.71673
28.71673
28.71673
28.71673
28.74953
28.74953
28.74953
28.74953
28.74953
28.76
28.76
28.76
28.76
28.76
28.76021
28.76021
28.76021
28.76021
28.76021
28.75025
28.75025
28.75025
28.75025
28.75025
28.71682
28.71682
28.71682
28.71682
28.71682
28.71645
28.71645
28.71645
28.71645
28.71645
28.74921
28.74921
28.74921
28.74921
28.74921
28.75962
28.75962
28.75962
28.75962
28.75962
28.75884
28.75884
28.75884
28.75884
28.75884
28.74359
28.74359
28.74359
28.74359
28.74359
28.69147
28.69147
28.69147
28.69147
28.69147
28.66296
28.66296
28.66296
28.66296
28.66296
28.65466
28.65466
28.65466
28.65466
28.65466
28.685
28.685
28.685
28.685
28.685
28.74038
28.74038
28.74038
28.74038
28.74038
28.75672
28.75672
28.75672
28.75672
28.75672
28.75771
28.75771
28.75771
28.75771
28.75771
28.74686
28.74686
28.74686
28.74686
28.74686
28.71266
28.71266
28.71266
28.71266
28.71266
28.71298
28.71298
28.71298
28.71298
28.71298
28.74775
28.74775
28.74775
28.74775
28.74775
28.75831
28.75831
28.75831
28.75831
28.75831
28.75816
28.75816
28.75816
28.75816
28.75816
28.7473
28.7473
28.7473
28.7473
28.7473
28.71298
28.71298
28.71298
28.71298
28.71298
28.71312
28.71312
28.71312
28.71312
28.71312
28.74762
28.74762
28.74762
28.74762
28.74762
28.75835
28.75835
28.75835
28.75835
28.75835
28.75823
28.75823
28.75823
28.75823
28.75823
28.74724
28.74724
28.74724
28.74724
28.74724
28.71303
28.71303
28.71303
28.71303
28.71303
28.71314
28.71314
28.71314
28.71314
28.71314
28.74769
28.74769
28.74769
28.74769
28.74769
28.75832
28.75832
28.75832
28.75832
28.75832
28.75832
28.75832
28.75832
28.75832
28.75832
28.74769
28.74769
28.74769
28.74769
28.74769
28.71315
28.71315
28.71315
28.71315
28.71315
28.71302
28.71302
28.71302
28.71302
28.71302
28.74727
28.74727
28.74727
28.74727
28.74727
28.75825
28.75825
28.75825
28.75825
28.75825
28.75835
28.75835
28.75835
28.75835
28.75835
28.74763
28.74763
28.74763
28.74763
28.74763
28.71312
28.71312
28.71312
28.71312
28.71312
28.71298
28.71298
28.71298
28.71298
28.71298
28.7473
28.7473
28.7473
28.7473
28.7473
28.75816
28.75816
28.75816
28.75816
28.75816
28.75832
28.75832
28.75832
28.75832
28.75832
28.74777
28.74777
28.74777
28.74777
28.74777
28.71301
28.71301
28.71301
28.71301
28.71301
28.71267
28.71267
28.71267
28.71267
28.71267
28.74686
28.74686
28.74686
28.74686
28.74686
28.75773
28.75773
28.75773
28.75773
28.75773
28.75676
28.75676
28.75676
28.75676
28.75676
28.74043
28.74043
28.74043
28.74043
28.74043
28.68509
28.68509
28.68509
28.68509
28.68509
28.65477
28.65477
28.65477
28.65477
28.65477
28.64699
28.64699
28.64699
28.64699
28.64699
28.67901
28.67901
28.67901
28.67901
28.67901
28.73732
28.73732
28.73732
28.73732
28.73732
28.75469
28.75469
28.75469
28.75469
28.75469
28.75585
28.75585
28.75585
28.75585
28.75585
28.74456
28.74456
28.74456
28.74456
28.74456
28.70916
28.70916
28.70916
28.70916
28.70916
28.70945
28.70945
28.70945
28.70945
28.70945
28.7454
28.7454
28.7454
28.7454
28.7454
28.75648
28.75648
28.75648
28.75648
28.75648
28.75637
28.75637
28.75637
28.75637
28.75637
28.74518
28.74518
28.74518
28.74518
28.74518
28.70983
28.70983
28.70983
28.70983
28.70983
28.70964
28.70964
28.70964
28.70964
28.70964
28.74505
28.74505
28.74505
28.74505
28.74505
28.75645
28.75645
28.75645
28.75645
28.75645
28.75642
28.75642
28.75642
28.75642
28.75642
28.74498
28.74498
28.74498
28.74498
28.74498
28.70957
28.70957
28.70957
28.70957
28.70957
28.70969
28.70969
28.70969
28.70969
28.70969
28.74537
28.74537
28.74537
28.74537
28.74537
28.75653
28.75653
28.75653
28.75653
28.75653
28.75653
28.75653
28.75653
28.75653
28.75653
28.74538
28.74538
28.74538
28.74538
28.74538
28.70969
28.70969
28.70969
28.70969
28.70969
28.70957
28.70957
28.70957
28.70957
28.70957
28.74498
28.74498
28.74498
28.74498
28.74498
28.75642
28.75642
28.75642
28.75642
28.75642
28.75645
28.75645
28.75645
28.75645
28.75645
28.74505
28.74505
28.74505
28.74505
28.74505
28.70964
28.70964
28.70964
28.70964
28.70964
28.70983
28.70983
28.70983
28.70983
28.70983
28.74517
28.74517
28.74517
28.74517
28.74517
28.75637
28.75637
28.75637
28.75637
28.75637
28.75648
28.75648
28.75648
28.75648
28.75648
28.74541
28.74541
28.74541
28.74541
28.74541
28.70947
28.70947
28.70947
28.70947
28.70947
28.70916
28.70916
28.70916
28.70916
28.70916
28.74457
28.74457
28.74457
28.74457
28.74457
28.75587
28.75587
28.75587
28.75587
28.75587
28.75473
28.75473
28.75473
28.75473
28.75473
28.73737
28.73737
28.73737
28.73737
28.73737
28.67911
28.67911
28.67911
28.67911
28.67911
28.6471
28.6471
28.6471
28.6471
28.6471
28.63981
28.63981
28.63981
28.63981
28.63981
28.67331
28.67331
28.67331
28.67331
28.67331
28.73431
28.73431
28.73431
28.73431
28.73431
28.75279
28.75279
28.75279
28.75279
28.75279
28.75415
28.75415
28.75415
28.75415
28.75415
28.74247
28.74247
28.74247
28.74247
28.74247
28.70606
28.70606
28.70606
28.70606
28.70606
28.70633
28.70633
28.70633
28.70633
28.70633
28.74324
28.74324
28.74324
28.74324
28.74324
28.75481
28.75481
28.75481
28.75481
28.75481
28.75476
28.75476
28.75476
28.75476
28.75476
28.74326
28.74326
28.74326
28.74326
28.74326
28.70709
28.70709
28.70709
28.70709
28.70709
28.7065
28.7065
28.7065
28.7065
28.7065
28.74259
28.74259
28.74259
28.74259
28.74259
28.75464
28.75464
28.75464
28.75464
28.75464
28.75469
28.75469
28.75469
28.75469
28.75469
28.74285
28.74285
28.74285
28.74285
28.74285
28.70635
28.70635
28.70635
28.70635
28.70635
28.70645
28.70645
28.70645
28.70645
28.70645
28.7431
28.7431
28.7431
28.7431
28.7431
28.75475
28.75475
28.75475
28.75475
28.75475
28.75476
28.75476
28.75476
28.75476
28.75476
28.74311
28.74311
28.74311
28.74311
28.74311
28.70645
28.70645
28.70645
28.70645
28.70645
28.70634
28.70634
28.70634
28.70634
28.70634
28.74281
28.74281
28.74281
28.74281
28.74281
28.75466
28.75466
28.75466
28.75466
28.75466
28.75464
28.75464
28.75464
28.75464
28.75464
28.7426
28.7426
28.7426
28.7426
28.7426
28.7065
28.7065
28.7065
28.7065
28.7065
28.70707
28.70707
28.70707
28.70707
28.70707
28.74323
28.74323
28.74323
28.74323
28.74323
28.75475
28.75475
28.75475
28.75475
28.75475
28.75481
28.75481
28.75481
28.75481
28.75481
28.74325
28.74325
28.74325
28.74325
28.74325
28.70634
28.70634
28.70634
28.70634
28.70634
28.70607
28.70607
28.70607
28.70607
28.70607
28.74248
28.74248
28.74248
28.74248
28.74248
28.75416
28.75416
28.75416
28.75416
28.75416
28.75282
28.75282
28.75282
28.75282
28.75282
28.73438
28.73438
28.73438
28.73438
28.73438
28.67342
28.67342
28.67342
28.67342
28.67342
28.6399
28.6399
28.6399
28.6399
28.6399
28.63306
28.63306
28.63306
28.63306
28.63306
28.66801
28.66801
28.66801
28.66801
28.66801
28.73153
28.73153
28.73153
28.73153
28.73153
28.75094
28.75094
28.75094
28.75094
28.75094
28.75248
28.75248
28.75248
28.75248
28.75248
28.74058
28.74058
28.74058
28.74058
28.74058
28.70317
28.70317
28.70317
28.70317
28.70317
28.70338
28.70338
28.70338
28.70338
28.70338
28.74106
28.74106
28.74106
28.74106
28.74106
28.75313
28.75313
28.75313
28.75313
28.75313
28.75315
28.75315
28.75315
28.75315
28.75315
28.74137
28.74137
28.74137
28.74137
28.74137
28.70449
28.70449
28.70449
28.70449
28.70449
28.70363
28.70363
28.70363
28.70363
28.70363
28.74039
28.74039
28.74039
28.74039
28.74039
28.75294
28.75294
28.75294
28.75294
28.75294
28.75307
28.75307
28.75307
28.75307
28.75307
28.74094
28.74094
28.74094
28.74094
28.74094
28.70351
28.70351
28.70351
28.70351
28.70351
28.70358
28.70358
28.70358
28.70358
28.70358
28.74105
28.74105
28.74105
28.74105
28.74105
28.75315
28.75315
28.75315
28.75315
28.75315
28.75316
28.75316
28.75316
28.75316
28.75316
28.74106
28.74106
28.74106
28.74106
28.74106
28.70358
28.70358
28.70358
28.70358
28.70358
28.70351
28.70351
28.70351
28.70351
28.70351
28.74094
28.74094
28.74094
28.74094
28.74094
28.75307
28.75307
28.75307
28.75307
28.75307
28.75296
28.75296
28.75296
28.75296
28.75296
28.74039
28.74039
28.74039
28.74039
28.74039
28.70366
28.70366
28.70366
28.70366
28.70366
28.70452
28.70452
28.70452
28.70452
28.70452
28.74139
28.74139
28.74139
28.74139
28.74139
28.75317
28.75317
28.75317
28.75317
28.75317
28.75312
28.75312
28.75312
28.75312
28.75312
28.74105
28.74105
28.74105
28.74105
28.74105
28.70336
28.70336
28.70336
28.70336
28.70336
28.70315
28.70315
28.70315
28.70315
28.70315
28.74055
28.74055
28.74055
28.74055
28.74055
28.75243
28.75243
28.75243
28.75243
28.75243
28.75089
28.75089
28.75089
28.75089
28.75089
28.73149
28.73149
28.73149
28.73149
28.73149
28.66798
28.66798
28.66798
28.66798
28.66798
28.63302
28.63302
28.63302
28.63302
28.63302
28.62652
28.62652
28.62652
28.62652
28.62652
28.66263
28.66263
28.66263
28.66263
28.66263
28.72836
28.72836
28.72836
28.72836
28.72836
28.74897
28.74897
28.74897
28.74897
28.74897
28.75082
28.75082
28.75082
28.75082
28.75082
28.73877
28.73877
28.73877
28.73877
28.73877
28.70063
28.70063
28.70063
28.70063
28.70063
28.70061
28.70061
28.70061
28.70061
28.70061
28.73872
28.73872
28.73872
28.73872
28.73872
28.75143
28.75143
28.75143
28.75143
28.75143
28.75162
28.75162
28.75162
28.75162
28.75162
28.73956
28.73956
28.73956
28.73956
28.73956
28.70185
28.70185
28.70185
28.70185
28.70185
28.70098
28.70098
28.70098
28.70098
28.70098
28.73824
28.73824
28.73824
28.73824
28.73824
28.7513
28.7513
28.7513
28.7513
28.7513
28.75151
28.75151
28.75151
28.75151
28.75151
28.73908
28.73908
28.73908
28.73908
28.73908
28.70088
28.70088
28.70088
28.70088
28.70088
28.70087
28.70087
28.70087
28.70087
28.70087
28.73888
28.73888
28.73888
28.73888
28.73888
28.75151
28.75151
28.75151
28.75151
28.75151
28.75152
28.75152
28.75152
28.75152
28.75152
28.73889
28.73889
28.73889
28.73889
28.73889
28.70088
28.70088
28.70088
28.70088
28.70088
28.70086
28.70086
28.70086
28.70086
28.70086
28.73905
28.73905
28.73905
28.73905
28.73905
28.75149
28.75149
28.75149
28.75149
28.75149
28.7513
28.7513
28.7513
28.7513
28.7513
28.73825
28.73825
28.73825
28.73825
28.73825
28.70097
28.70097
28.70097
28.70097
28.70097
28.70183
28.70183
28.70183
28.70183
28.70183
28.73953
28.73953
28.73953
28.73953
28.73953
28.75161
28.75161
28.75161
28.75161
28.75161
28.75146
28.75146
28.75146
28.75146
28.75146
28.73877
28.73877
28.73877
28.73877
28.73877
28.70066
28.70066
28.70066
28.70066
28.70066
28.70066
28.70066
28.70066
28.70066
28.70066
28.7388
28.7388
28.7388
28.7388
28.7388
28.75087
28.75087
28.75087
28.75087
28.75087
28.74907
28.74907
28.74907
28.74907
28.74907
28.72849
28.72849
28.72849
28.72849
28.72849
28.66281
28.66281
28.66281
28.66281
28.66281
28.6267
28.6267
28.6267
28.6267
28.6267
28.6205
28.6205
28.6205
28.6205
28.6205
28.65772
28.65772
28.65772
28.65772
28.65772
28.72547
28.72547
28.72547
28.72547
28.72547
28.74723
28.74723
28.74723
28.74723
28.74723
28.74939
28.74939
28.74939
28.74939
28.74939
28.73722
28.73722
28.73722
28.73722
28.73722
28.69868
28.69868
28.69868
28.69868
28.69868
28.69823
28.69823
28.69823
28.69823
28.69823
28.73656
28.73656
28.73656
28.73656
28.73656
28.74988
28.74988
28.74988
28.74988
28.74988
28.75017
28.75017
28.75017
28.75017
28.75017
28.73783
28.73783
28.73783
28.73783
28.73783
28.69945
28.69945
28.69945
28.69945
28.69945
28.69853
28.69853
28.69853
28.69853
28.69853
28.73628
28.73628
28.73628
28.73628
28.73628
28.74973
28.74973
28.74973
28.74973
28.74973
28.74999
28.74999
28.74999
28.74999
28.74999
28.73731
28.73731
28.73731
28.73731
28.73731
28.69843
28.69843
28.69843
28.69843
28.69843
28.6983
28.6983
28.6983
28.6983
28.6983
28.73677
28.73677
28.73677
28.73677
28.73677
28.74989
28.74989
28.74989
28.74989
28.74989
28.74989
28.74989
28.74989
28.74989
28.74989
28.73678
28.73678
28.73678
28.73678
28.73678
28.69831
28.69831
28.69831
28.69831
28.69831
28.69842
28.69842
28.69842
28.69842
28.69842
28.73732
28.73732
28.73732
28.73732
28.73732
28.75001
28.75001
28.75001
28.75001
28.75001
28.74974
28.74974
28.74974
28.74974
28.74974
28.73629
28.73629
28.73629
28.73629
28.73629
28.69853
28.69853
28.69853
28.69853
28.69853
28.69947
28.69947
28.69947
28.69947
28.69947
28.73784
28.73784
28.73784
28.73784
28.73784
28.75017
28.75017
28.75017
28.75017
28.75017
28.74989
28.74989
28.74989
28.74989
28.74989
28.73659
28.73659
28.73659
28.73659
28.73659
28.69825
28.69825
28.69825
28.69825
28.69825
28.69869
28.69869
28.69869
28.69869
28.69869
28.73722
28.73722
28.73722
28.73722
28.73722
28.74941
28.74941
28.74941
28.74941
28.74941
28.74728
28.74728
28.74728
28.74728
28.74728
28.72553
28.72553
28.72553
28.72553
28.72553
28.65782
28.65782
28.65782
28.65782
28.65782
28.62063
28.62063
28.62063
28.62063
28.62063
28.61449
28.61449
28.61449
28.61449
28.61449
28.65218
28.65218
28.65218
28.65218
28.65218
28.72132
28.72132
28.72132
28.72132
28.72132
28.74507
28.74507
28.74507
28.74507
28.74507
28.74777
28.74777
28.74777
28.74777
28.74777
28.73546
28.73546
28.73546
28.73546
28.73546
28.69634
28.69634
28.69634
28.69634
28.69634
28.69573
28.69573
28.69573
28.69573
28.69573
28.7338
28.7338
28.7338
28.7338
28.7338
28.74809
28.74809
28.74809
28.74809
28.74809
28.74857
28.74857
28.74857
28.74857
28.74857
28.7357
28.7357
28.7357
28.7357
28.7357
28.69686
28.69686
28.69686
28.69686
28.69686
28.69607
28.69607
28.69607
28.69607
28.69607
28.73392
28.73392
28.73392
28.73392
28.73392
28.74806
28.74806
28.74806
28.74806
28.74806
28.74842
28.74842
28.74842
28.74842
28.74842
28.73522
28.73522
28.73522
28.73522
28.73522
28.69609
28.69609
28.69609
28.69609
28.69609
28.69587
28.69587
28.69587
28.69587
28.69587
28.73433
28.73433
28.73433
28.73433
28.73433
28.74821
28.74821
28.74821
28.74821
28.74821
28.74822
28.74822
28.74822
28.74822
28.74822
28.73434
28.73434
28.73434
28.73434
28.73434
28.69588
28.69588
28.69588
28.69588
28.69588
28.69608
28.69608
28.69608
28.69608
28.69608
28.73522
28.73522
28.73522
28.73522
28.73522
28.74842
28.74842
28.74842
28.74842
28.74842
28.74806
28.74806
28.74806
28.74806
28.74806
28.73392
28.73392
28.73392
28.73392
28.73392
28.69608
28.69608
28.69608
28.69608
28.69608
28.69686
28.69686
28.69686
28.69686
28.69686
28.7357
28.7357
28.7357
28.7357
28.7357
28.74857
28.74857
28.74857
28.74857
28.74857
28.7481
28.7481
28.7481
28.7481
28.7481
28.73382
28.73382
28.73382
28.73382
28.73382
28.69575
28.69575
28.69575
28.69575
28.69575
28.69634
28.69634
28.69634
28.69634
28.69634
28.73546
28.73546
28.73546
28.73546
28.73546
28.74779
28.74779
28.74779
28.74779
28.74779
28.74511
28.74511
28.74511
28.74511
28.74511
28.72138
28.72138
28.72138
28.72138
28.72138
28.65229
28.65229
28.65229
28.65229
28.65229
28.61461
28.61461
28.61461
28.61461
28.61461
28.60797
28.60797
28.60797
28.60797
28.60797
28.64521
28.64521
28.64521
28.64521
28.64521
28.71502
28.71502
28.71502
28.71502
28.71502
28.74238
28.74238
28.74238
28.74238
28.74238
28.74598
28.74598
28.74598
28.74598
28.74598
28.7331
28.7331
28.7331
28.7331
28.7331
28.69386
28.69386
28.69386
28.69386
28.69386
28.6931
28.6931
28.6931
28.6931
28.6931
28.73039
28.73039
28.73039
28.73039
28.73039
28.74612
28.74612
28.74612
28.74612
28.74612
28.74682
28.74682
28.74682
28.74682
28.74682
28.73291
28.73291
28.73291
28.73291
28.73291
28.69417
28.69417
28.69417
28.69417
28.69417
28.69342
28.69342
28.69342
28.69342
28.69342
28.73087
28.73087
28.73087
28.73087
28.73087
28.74617
28.74617
28.74617
28.74617
28.74617
28.74661
28.74661
28.74661
28.74661
28.74661
28.73231
28.73231
28.73231
28.73231
28.73231
28.69348
28.69348
28.69348
28.69348
28.69348
28.6932
28.6932
28.6932
28.6932
28.6932
28.73125
28.73125
28.73125
28.73125
28.73125
28.74629
28.74629
28.74629
28.74629
28.74629
28.74629
28.74629
28.74629
28.74629
28.74629
28.73126
28.73126
28.73126
28.73126
28.73126
28.69321
28.69321
28.69321
28.69321
28.69321
28.69347
28.69347
28.69347
28.69347
28.69347
28.73227
28.73227
28.73227
28.73227
28.73227
28.74658
28.74658
28.74658
28.74658
28.74658
28.74617
28.74617
28.74617
28.74617
28.74617
28.73087
28.73087
28.73087
28.73087
28.73087
28.69343
28.69343
28.69343
28.69343
28.69343
28.69416
28.69416
28.69416
28.69416
28.69416
28.73289
28.73289
28.73289
28.73289
28.73289
28.74682
28.74682
28.74682
28.74682
28.74682
28.74613
28.74613
28.74613
28.74613
28.74613
28.73041
28.73041
28.73041
28.73041
28.73041
28.69312
28.69312
28.69312
28.69312
28.69312
28.69386
28.69386
28.69386
28.69386
28.69386
28.7331
28.7331
28.7331
28.7331
28.7331
28.746
28.746
28.746
28.746
28.746
28.74242
28.74242
28.74242
28.74242
28.74242
28.7151
28.7151
28.7151
28.7151
28.7151
28.64533
28.64533
28.64533
28.64533
28.64533
28.60808
28.60808
28.60808
28.60808
28.60808
28.60024
28.60024
28.60024
28.60024
28.60024
28.63698
28.63698
28.63698
28.63698
28.63698
28.70788
28.70788
28.70788
28.70788
28.70788
28.73915
28.73915
28.73915
28.73915
28.73915
28.74384
28.74384
28.74384
28.74384
28.74384
28.7301
28.7301
28.7301
28.7301
28.7301
28.69088
28.69088
28.69088
28.69088
28.69088
28.68992
28.68992
28.68992
28.68992
28.68992
28.72653
28.72653
28.72653
28.72653
28.72653
28.74382
28.74382
28.74382
28.74382
28.74382
28.74475
28.74475
28.74475
28.74475
28.74475
28.72957
28.72957
28.72957
28.72957
28.72957
28.69103
28.69103
28.69103
28.69103
28.69103
28.69029
28.69029
28.69029
28.69029
28.69029
28.72736
28.72736
28.72736
28.72736
28.72736
28.74403
28.74403
28.74403
28.74403
28.74403
28.74454
28.74454
28.74454
28.74454
28.74454
28.72891
28.72891
28.72891
28.72891
28.72891
28.6905
28.6905
28.6905
28.6905
28.6905
28.6902
28.6902
28.6902
28.6902
28.6902
28.72786
28.72786
28.72786
28.72786
28.72786
28.7442
28.7442
28.7442
28.7442
28.7442
28.7442
28.7442
28.7442
28.7442
28.7442
28.72787
28.72787
28.72787
28.72787
28.72787
28.69021
28.69021
28.69021
28.69021
28.69021
28.6905
28.6905
28.6905
28.6905
28.6905
28.72891
28.72891
28.72891
28.72891
28.72891
28.74454
28.74454
28.74454
28.74454
28.74454
28.74404
28.74404
28.74404
28.74404
28.74404
28.72736
28.72736
28.72736
28.72736
28.72736
28.69033
28.69033
28.69033
28.69033
28.69033
28.69106
28.69106
28.69106
28.69106
28.69106
28.72959
28.72959
28.72959
28.72959
28.72959
28.74477
28.74477
28.74477
28.74477
28.74477
28.7438
28.7438
28.7438
28.7438
28.7438
28.72651
28.72651
28.72651
28.72651
28.72651
28.68989
28.68989
28.68989
28.68989
28.68989
28.69084
28.69084
28.69084
28.69084
28.69084
28.73006
28.73006
28.73006
28.73006
28.73006
28.74379
28.74379
28.74379
28.74379
28.74379
28.73909
28.73909
28.73909
28.73909
28.73909
28.70784
28.70784
28.70784
28.70784
28.70784
28.63695
28.63695
28.63695
28.63695
28.63695
28.6002
28.6002
28.6002
28.6002
28.6002
28.58827
28.58827
28.58827
28.58827
28.58827
28.62054
28.62054
28.62054
28.62054
28.62054
28.68782
28.68782
28.68782
28.68782
28.68782
28.73312
28.73312
28.73312
28.73312
28.73312
28.73949
28.73949
28.73949
28.73949
28.73949
28.72185
28.72185
28.72185
28.72185
28.72185
28.68585
28.68585
28.68585
28.68585
28.68585
28.6845
28.6845
28.6845
28.6845
28.6845
28.71681
28.71681
28.71681
28.71681
28.71681
28.73961
28.73961
28.73961
28.73961
28.73961
28.74072
28.74072
28.74072
28.74072
28.74072
28.72074
28.72074
28.72074
28.72074
28.72074
28.68582
28.68582
28.68582
28.68582
28.68582
28.68503
28.68503
28.68503
28.68503
28.68503
28.7183
28.7183
28.7183
28.7183
28.7183
28.73998
28.73998
28.73998
28.73998
28.73998
28.74051
28.74051
28.74051
28.74051
28.74051
28.71992
28.71992
28.71992
28.71992
28.71992
28.68532
28.68532
28.68532
28.68532
28.68532
28.68499
28.68499
28.68499
28.68499
28.68499
28.71889
28.71889
28.71889
28.71889
28.71889
28.74015
28.74015
28.74015
28.74015
28.74015
28.74016
28.74016
28.74016
28.74016
28.74016
28.7189
28.7189
28.7189
28.7189
28.7189
28.685
28.685
28.685
28.685
28.685
28.6853
28.6853
28.6853
28.6853
28.6853
28.7199
28.7199
28.7199
28.7199
28.7199
28.74049
28.74049
28.74049
28.74049
28.74049
28.73997
28.73997
28.73997
28.73997
28.73997
28.71832
28.71832
28.71832
28.71832
28.71832
28.68502
28.68502
28.68502
28.68502
28.68502
28.6858
28.6858
28.6858
28.6858
28.6858
28.72072
28.72072
28.72072
28.72072
28.72072
28.74071
28.74071
28.74071
28.74071
28.74071
28.73965
28.73965
28.73965
28.73965
28.73965
28.71686
28.71686
28.71686
28.71686
28.71686
28.68455
28.68455
28.68455
28.68455
28.68455
28.68589
28.68589
28.68589
28.68589
28.68589
28.72188
28.72188
28.72188
28.72188
28.72188
28.73956
28.73956
28.73956
28.73956
28.73956
28.73323
28.73323
28.73323
28.73323
28.73323
28.68799
28.68799
28.68799
28.68799
28.68799
28.62076
28.62076
28.62076
28.62076
28.62076
28.58849
28.58849
28.58849
28.58849
28.58849
28.5687
28.5687
28.5687
28.5687
28.5687
28.59577
28.59577
28.59577
28.59577
28.59577
28.65703
28.65703
28.65703
28.65703
28.65703
28.71973
28.71973
28.71973
28.71973
28.71973
28.72921
28.72921
28.72921
28.72921
28.72921
28.70675
28.70675
28.70675
28.70675
28.70675
28.67565
28.67565
28.67565
28.67565
28.67565
28.67396
28.67396
28.67396
28.67396
28.67396
28.70129
28.70129
28.70129
28.70129
28.70129
28.72956
28.72956
28.72956
28.72956
28.72956
28.73085
28.73085
28.73085
28.73085
28.73085
28.70538
28.70538
28.70538
28.70538
28.70538
28.67529
28.67529
28.67529
28.67529
28.67529
28.6745
28.6745
28.6745
28.6745
28.6745
28.70314
28.70314
28.70314
28.70314
28.70314
28.73003
28.73003
28.73003
28.73003
28.73003
28.73055
28.73055
28.73055
28.73055
28.73055
28.70452
28.70452
28.70452
28.70452
28.70452
28.67473
28.67473
28.67473
28.67473
28.67473
28.67442
28.67442
28.67442
28.67442
28.67442
28.7037
28.7037
28.7037
28.7037
28.7037
28.73019
28.73019
28.73019
28.73019
28.73019
28.7302
28.7302
28.7302
28.7302
28.7302
28.70371
28.70371
28.70371
28.70371
28.70371
28.67443
28.67443
28.67443
28.67443
28.67443
28.67472
28.67472
28.67472
28.67472
28.67472
28.70455
28.70455
28.70455
28.70455
28.70455
28.73058
28.73058
28.73058
28.73058
28.73058
28.73004
28.73004
28.73004
28.73004
28.73004
28.70316
28.70316
28.70316
28.70316
28.70316
28.67451
28.67451
28.67451
28.67451
28.67451
28.67531
28.67531
28.67531
28.67531
28.67531
28.70539
28.70539
28.70539
28.70539
28.70539
28.73085
28.73085
28.73085
28.73085
28.73085
28.72958
28.72958
28.72958
28.72958
28.72958
28.70131
28.70131
28.70131
28.70131
28.70131
28.67399
28.67399
28.67399
28.67399
28.67399
28.67567
28.67567
28.67567
28.67567
28.67567
28.70676
28.70676
28.70676
28.70676
28.70676
28.72924
28.72924
28.72924
28.72924
28.72924
28.71979
28.71979
28.71979
28.71979
28.71979
28.65714
28.65714
28.65714
28.65714
28.65714
28.59591
28.59591
28.59591
28.59591
28.59591
28.56885
28.56885
28.56885
28.56885
28.56885
)
;

boundaryField
{
    electrolyteSides
    {
        type            zeroGradient;
    }
    electrolyte_to_fuel
    {
        type            zeroGradient;
    }
    electrolyte_to_air
    {
        type            zeroGradient;
    }
}


// ************************************************************************* //
